%  FabNS Header Version:	0.1
%  Export Date:	Tue Oct 29 2024
%  Shape:	1600 
%  Shape Units:	Wavelength [nm] 
%  Data Unit:	units
539.067 1620
539.143 1599
539.22 1633
539.297 1616
539.373 1604
539.45 1594
539.527 1628
539.603 1593
539.68 1635
539.757 1616
539.833 1598
539.91 1606
539.987 1612
540.063 1630
540.14 1604
540.217 1602
540.293 1616
540.37 1604
540.446 1616
540.523 1624
540.6 1616
540.676 1637
540.753 1636
540.83 1622
540.906 1628
540.983 1627
541.06 1626
541.136 1603
541.213 1637
541.289 1627
541.366 1621
541.443 1619
541.519 1645
541.596 1604
541.673 1614
541.749 1624
541.826 1604
541.902 1619
541.979 1626
542.056 1633
542.132 1628
542.209 1618
542.285 1625
542.362 1631
542.439 1649
542.515 1648
542.592 1634
542.668 1627
542.745 1669
542.822 1633
542.898 1630
542.975 1649
543.052 1649
543.128 1631
543.205 1640
543.281 1641
543.358 1634
543.435 1633
543.511 1628
543.588 1645
543.664 1633
543.741 1632
543.818 1637
543.894 1652
543.971 1634
544.047 1650
544.124 1637
544.2 1629
544.277 1629
544.354 1628
544.43 1628
544.507 1638
544.583 1641
544.66 1643
544.736 1647
544.813 1629
544.89 1638
544.966 1634
545.043 1645
545.119 1630
545.196 1629
545.272 1633
545.349 1624
545.426 1631
545.502 1651
545.579 1622
545.655 1649
545.732 1627
545.808 1654
545.885 1636
545.961 1651
546.038 1625
546.115 1630
546.191 1634
546.268 1642
546.344 1626
546.421 1654
546.497 1628
546.574 1649
546.65 1643
546.727 1657
546.804 1669
546.88 1675
546.957 1665
547.033 1663
547.11 1667
547.186 1656
547.263 1637
547.339 1640
547.416 1652
547.492 1649
547.569 1639
547.646 1637
547.722 1635
547.799 1633
547.875 1621
547.952 1642
548.028 1640
548.105 1607
548.181 1627
548.258 1637
548.334 1619
548.411 1650
548.487 1632
548.564 1625
548.64 1641
548.717 1625
548.793 1638
548.87 1633
548.946 1611
549.023 1614
549.099 1624
549.176 1624
549.252 1632
549.329 1654
549.405 1627
549.482 1629
549.558 1627
549.635 1638
549.711 1625
549.788 1635
549.864 1622
549.941 1635
550.017 1628
550.094 1630
550.17 1627
550.247 1638
550.323 1634
550.4 1619
550.476 1611
550.553 1617
550.629 1609
550.706 1623
550.782 1622
550.859 1639
550.935 1615
551.012 1634
551.088 1633
551.165 1631
551.241 1626
551.318 1619
551.394 1636
551.471 1623
551.547 1605
551.624 1633
551.7 1619
551.777 1627
551.853 1631
551.93 1641
552.006 1634
552.082 1645
552.159 1616
552.235 1629
552.312 1597
552.388 1617
552.465 1616
552.541 1617
552.618 1600
552.694 1619
552.771 1601
552.847 1637
552.923 1635
553 1622
553.076 1622
553.153 1638
553.229 1622
553.306 1630
553.382 1625
553.459 1627
553.535 1622
553.611 1623
553.688 1617
553.764 1606
553.841 1613
553.917 1615
553.994 1618
554.07 1617
554.147 1623
554.223 1625
554.299 1620
554.376 1616
554.452 1626
554.529 1618
554.605 1629
554.682 1613
554.758 1616
554.834 1643
554.911 1627
554.987 1641
555.064 1623
555.14 1615
555.216 1621
555.293 1623
555.369 1615
555.446 1637
555.522 1627
555.599 1629
555.675 1625
555.751 1616
555.828 1618
555.904 1621
555.981 1613
556.057 1625
556.133 1611
556.21 1621
556.286 1620
556.363 1635
556.439 1612
556.515 1615
556.592 1615
556.668 1623
556.745 1625
556.821 1637
556.897 1619
556.974 1620
557.05 1621
557.127 1627
557.203 1622
557.279 1625
557.356 1627
557.432 1627
557.508 1631
557.585 1627
557.661 1612
557.738 1611
557.814 1629
557.89 1609
557.967 1613
558.043 1622
558.119 1619
558.196 1616
558.272 1626
558.349 1624
558.425 1629
558.501 1624
558.578 1622
558.654 1602
558.73 1625
558.807 1637
558.883 1604
558.959 1636
559.036 1639
559.112 1616
559.188 1606
559.265 1623
559.341 1609
559.418 1626
559.494 1616
559.57 1616
559.647 1633
559.723 1625
559.799 1606
559.876 1607
559.952 1614
560.028 1643
560.105 1629
560.181 1640
560.257 1625
560.334 1602
560.41 1609
560.486 1619
560.563 1617
560.639 1619
560.715 1596
560.792 1616
560.868 1638
560.944 1614
561.021 1627
561.097 1632
561.173 1612
561.25 1613
561.326 1627
561.402 1634
561.479 1626
561.555 1626
561.631 1627
561.708 1622
561.784 1633
561.86 1644
561.936 1637
562.013 1633
562.089 1608
562.165 1637
562.242 1608
562.318 1626
562.394 1612
562.471 1631
562.547 1609
562.623 1604
562.699 1622
562.776 1636
562.852 1638
562.928 1621
563.005 1625
563.081 1633
563.157 1616
563.233 1635
563.31 1634
563.386 1615
563.462 1628
563.539 1644
563.615 1616
563.691 1636
563.768 1625
563.844 1619
563.92 1616
563.996 1614
564.073 1634
564.149 1639
564.225 1626
564.301 1632
564.378 1617
564.454 1627
564.53 1615
564.607 1627
564.683 1631
564.759 1635
564.835 1631
564.912 1628
564.988 1617
565.064 1620
565.14 1627
565.217 1625
565.293 1612
565.369 1619
565.445 1619
565.522 1628
565.598 1625
565.674 1616
565.75 1644
565.827 1636
565.903 1620
565.979 1628
566.055 1614
566.132 1619
566.208 1612
566.284 1625
566.36 1626
566.437 1627
566.513 1604
566.589 1641
566.665 1630
566.741 1621
566.818 1623
566.894 1628
566.97 1605
567.046 1638
567.123 1618
567.199 1635
567.275 1612
567.351 1611
567.427 1630
567.504 1613
567.58 1614
567.656 1627
567.732 1627
567.809 1622
567.885 1614
567.961 1629
568.037 1620
568.113 1630
568.19 1634
568.266 1642
568.342 1626
568.418 1647
568.494 1615
568.571 1646
568.647 1619
568.723 1647
568.799 1626
568.875 1622
568.952 1637
569.028 1638
569.104 1621
569.18 1645
569.256 1624
569.333 1626
569.409 1640
569.485 1625
569.561 1620
569.637 1627
569.713 1642
569.79 1625
569.866 1604
569.942 1613
570.018 1644
570.094 1628
570.17 1640
570.247 1635
570.323 1619
570.399 1627
570.475 1621
570.551 1639
570.628 1630
570.704 1642
570.78 1641
570.856 1635
570.932 1625
571.008 1614
571.084 1623
571.161 1637
571.237 1613
571.313 1615
571.389 1627
571.465 1629
571.541 1644
571.617 1621
571.694 1630
571.77 1628
571.846 1612
571.922 1607
571.998 1624
572.074 1641
572.151 1625
572.227 1628
572.303 1623
572.379 1635
572.455 1627
572.531 1634
572.607 1625
572.683 1639
572.76 1618
572.836 1638
572.912 1628
572.988 1633
573.064 1616
573.14 1640
573.216 1637
573.292 1637
573.369 1629
573.445 1634
573.521 1629
573.597 1654
573.673 1644
573.749 1640
573.825 1640
573.901 1651
573.977 1620
574.054 1629
574.13 1623
574.206 1631
574.282 1637
574.358 1632
574.434 1639
574.51 1634
574.586 1618
574.662 1639
574.738 1645
574.815 1604
574.891 1619
574.967 1617
575.043 1621
575.119 1621
575.195 1624
575.271 1637
575.347 1631
575.423 1652
575.499 1622
575.575 1633
575.651 1646
575.727 1629
575.804 1640
575.88 1651
575.956 1612
576.032 1642
576.108 1614
576.184 1633
576.26 1629
576.336 1636
576.412 1609
576.488 1626
576.564 1624
576.64 1636
576.716 1625
576.792 1641
576.868 1637
576.945 1643
577.021 1639
577.097 1628
577.173 1629
577.249 1629
577.325 1632
577.401 1616
577.477 1630
577.553 1621
577.629 1639
577.705 1652
577.781 1614
577.857 1642
577.933 1645
578.009 1623
578.085 1646
578.161 1644
578.237 1617
578.313 1631
578.389 1618
578.465 1607
578.541 1623
578.617 1632
578.693 1636
578.769 1640
578.845 1634
578.921 1632
578.997 1625
579.074 1614
579.149 1620
579.226 1632
579.302 1631
579.378 1621
579.454 1612
579.53 1616
579.606 1632
579.682 1621
579.758 1624
579.834 1632
579.91 1646
579.986 1642
580.062 1620
580.138 1644
580.214 1632
580.29 1639
580.366 1648
580.442 1630
580.518 1615
580.594 1652
580.67 1634
580.745 1630
580.821 1622
580.897 1640
580.973 1628
581.049 1651
581.125 1631
581.201 1644
581.277 1633
581.353 1642
581.429 1634
581.505 1645
581.581 1625
581.657 1626
581.733 1636
581.809 1641
581.885 1625
581.961 1648
582.037 1626
582.113 1628
582.189 1626
582.265 1641
582.341 1628
582.417 1633
582.493 1637
582.569 1644
582.645 1617
582.721 1649
582.797 1627
582.873 1645
582.948 1645
583.024 1642
583.1 1614
583.176 1640
583.252 1621
583.328 1657
583.404 1634
583.48 1652
583.556 1624
583.632 1651
583.708 1634
583.784 1621
583.86 1643
583.936 1655
584.012 1654
584.088 1641
584.163 1645
584.239 1648
584.315 1626
584.391 1650
584.467 1636
584.543 1648
584.619 1633
584.695 1652
584.771 1635
584.847 1657
584.923 1649
584.999 1646
585.074 1640
585.15 1655
585.226 1648
585.302 1658
585.378 1647
585.454 1657
585.53 1642
585.606 1637
585.682 1649
585.758 1635
585.833 1652
585.909 1744
585.985 2037
586.061 2614
586.137 2725
586.213 2290
586.289 1998
586.365 1846
586.44 1767
586.516 1729
586.592 1710
586.668 1681
586.744 1633
586.82 1644
586.896 1626
586.972 1629
587.047 1639
587.123 1649
587.199 1620
587.275 1646
587.351 1644
587.427 1634
587.503 1634
587.579 1644
587.654 1640
587.73 1627
587.806 1628
587.882 1653
587.958 1647
588.034 1644
588.11 1637
588.185 1648
588.261 1670
588.337 1653
588.413 1669
588.489 1650
588.565 1645
588.64 1639
588.716 1656
588.792 1646
588.868 1643
588.944 1679
589.02 1723
589.095 1708
589.171 1687
589.247 1675
589.323 1645
589.399 1638
589.475 1637
589.55 1640
589.626 1631
589.702 1628
589.778 1605
589.854 1632
589.93 1636
590.005 1626
590.081 1623
590.157 1642
590.233 1605
590.309 1628
590.384 1616
590.46 1631
590.536 1627
590.612 1610
590.688 1615
590.763 1613
590.839 1611
590.915 1643
590.991 1625
591.067 1619
591.142 1627
591.218 1629
591.294 1614
591.37 1638
591.445 1630
591.521 1632
591.597 1639
591.673 1631
591.749 1602
591.824 1634
591.9 1620
591.976 1645
592.052 1646
592.128 1637
592.203 1648
592.279 1634
592.355 1621
592.431 1668
592.506 1637
592.582 1637
592.658 1638
592.734 1635
592.809 1630
592.885 1633
592.961 1624
593.037 1651
593.112 1650
593.188 1651
593.264 1635
593.34 1620
593.415 1637
593.491 1651
593.567 1647
593.643 1629
593.718 1633
593.794 1663
593.87 1644
593.946 1662
594.021 1625
594.097 1630
594.173 1639
594.249 1626
594.324 1635
594.4 1638
594.476 1637
594.551 1645
594.627 1647
594.703 1658
594.779 1623
594.854 1655
594.93 1627
595.006 1639
595.082 1648
595.157 1665
595.233 1698
595.309 1749
595.384 1764
595.46 1746
595.536 1692
595.612 1664
595.687 1646
595.763 1666
595.839 1639
595.914 1651
595.99 1655
596.066 1648
596.141 1645
596.217 1639
596.293 1642
596.369 1640
596.444 1629
596.52 1670
596.596 1639
596.671 1646
596.747 1639
596.823 1610
596.898 1658
596.974 1640
597.05 1628
597.125 1643
597.201 1641
597.277 1630
597.352 1642
597.428 1633
597.504 1661
597.579 1640
597.655 1639
597.731 1628
597.806 1651
597.882 1652
597.958 1655
598.033 1631
598.109 1631
598.185 1675
598.26 1650
598.336 1674
598.411 1669
598.487 1656
598.563 1657
598.638 1666
598.714 1644
598.79 1649
598.865 1665
598.941 1637
599.017 1653
599.092 1655
599.168 1643
599.244 1651
599.319 1656
599.395 1662
599.471 1658
599.546 1650
599.622 1649
599.697 1633
599.773 1628
599.849 1673
599.924 1664
600 1668
600.076 1663
600.151 1660
600.227 1628
600.302 1660
600.378 1655
600.454 1680
600.529 1663
600.605 1650
600.68 1644
600.756 1655
600.832 1678
600.907 1662
600.983 1646
601.058 1671
601.134 1654
601.21 1659
601.285 1659
601.361 1644
601.436 1660
601.512 1671
601.588 1667
601.663 1642
601.739 1657
601.814 1661
601.89 1651
601.965 1659
602.041 1647
602.117 1676
602.192 1671
602.268 1669
602.343 1647
602.419 1653
602.494 1650
602.57 1662
602.646 1671
602.721 1645
602.797 1666
602.872 1656
602.948 1667
603.023 1661
603.099 1655
603.174 1662
603.25 1660
603.326 1661
603.401 1650
603.477 1647
603.552 1654
603.628 1644
603.703 1662
603.779 1669
603.854 1690
603.93 1692
604.005 1673
604.081 1666
604.156 1668
604.232 1672
604.308 1645
604.383 1652
604.459 1667
604.534 1644
604.61 1654
604.685 1672
604.761 1667
604.836 1664
604.912 1657
604.987 1654
605.063 1657
605.138 1641
605.214 1636
605.289 1688
605.365 1637
605.44 1654
605.516 1658
605.591 1672
605.667 1672
605.742 1662
605.818 1654
605.893 1645
605.969 1657
606.044 1674
606.12 1654
606.195 1662
606.271 1661
606.346 1657
606.422 1668
606.497 1660
606.573 1651
606.648 1670
606.724 1664
606.799 1675
606.875 1652
606.95 1666
607.026 1650
607.101 1664
607.177 1659
607.252 1696
607.328 1657
607.403 1682
607.479 1661
607.554 1663
607.63 1658
607.705 1676
607.78 1662
607.856 1660
607.931 1656
608.007 1665
608.082 1664
608.158 1709
608.233 1745
608.309 1809
608.384 1737
608.459 1736
608.535 1685
608.61 1717
608.686 1682
608.761 1678
608.837 1688
608.912 1668
608.988 1682
609.063 1666
609.138 1666
609.214 1660
609.289 1660
609.365 1651
609.44 1642
609.516 1683
609.591 1667
609.666 1667
609.742 1654
609.817 1652
609.893 1665
609.968 1660
610.043 1667
610.119 1668
610.194 1672
610.27 1675
610.345 1739
610.42 1824
610.496 1895
610.571 1852
610.647 1773
610.722 1724
610.797 1700
610.873 1712
610.948 1688
611.024 1705
611.099 1689
611.174 1680
611.25 1688
611.325 1690
611.401 1672
611.476 1696
611.551 1674
611.627 1691
611.702 1674
611.778 1704
611.853 1681
611.928 1713
612.004 1712
612.079 1714
612.154 1727
612.23 1728
612.305 1753
612.38 1726
612.456 1760
612.531 1734
612.607 1741
612.682 1752
612.757 1730
612.833 1726
612.908 1732
612.983 1729
613.059 1699
613.134 1714
613.209 1702
613.285 1700
613.36 1712
613.435 1694
613.511 1694
613.586 1706
613.661 1692
613.737 1697
613.812 1692
613.887 1693
613.963 1668
614.038 1701
614.113 1688
614.189 1693
614.264 1668
614.339 1699
614.415 1686
614.49 1680
614.565 1704
614.641 1703
614.716 1689
614.791 1675
614.867 1681
614.942 1695
615.017 1735
615.092 1885
615.168 2090
615.243 2026
615.318 1893
615.394 1815
615.469 1751
615.544 1726
615.62 1721
615.695 1713
615.77 1690
615.845 1711
615.921 1675
615.996 1694
616.071 1671
616.146 1679
616.222 1672
616.297 1673
616.372 1657
616.448 1695
616.523 1661
616.598 1709
616.673 1675
616.749 1692
616.824 1673
616.899 1650
616.974 1678
617.05 1691
617.125 1730
617.2 1778
617.276 1781
617.351 1721
617.426 1709
617.501 1704
617.577 1688
617.652 1679
617.727 1668
617.802 1677
617.878 1674
617.953 1691
618.028 1655
618.103 1689
618.179 1674
618.254 1673
618.329 1685
618.404 1652
618.479 1638
618.555 1697
618.63 1672
618.705 1677
618.78 1659
618.856 1681
618.931 1673
619.006 1663
619.081 1661
619.156 1686
619.232 1672
619.307 1694
619.382 1675
619.457 1685
619.533 1671
619.608 1679
619.683 1651
619.758 1688
619.833 1670
619.909 1685
619.984 1662
620.059 1667
620.134 1661
620.209 1662
620.284 1674
620.36 1667
620.435 1672
620.51 1675
620.585 1662
620.66 1666
620.736 1683
620.811 1678
620.886 1684
620.961 1673
621.036 1683
621.112 1677
621.187 1686
621.262 1675
621.337 1679
621.412 1668
621.487 1689
621.563 1695
621.638 1656
621.713 1687
621.788 1683
621.863 1683
621.938 1670
622.013 1679
622.089 1691
622.164 1670
622.239 1676
622.314 1681
622.389 1688
622.464 1701
622.539 1735
622.615 1751
622.69 1705
622.765 1726
622.84 1678
622.915 1686
622.99 1677
623.065 1690
623.141 1692
623.216 1672
623.291 1681
623.366 1681
623.441 1660
623.516 1691
623.591 1682
623.666 1670
623.742 1673
623.817 1678
623.892 1682
623.967 1663
624.042 1660
624.117 1697
624.192 1672
624.267 1667
624.342 1677
624.417 1667
624.493 1677
624.568 1677
624.643 1681
624.718 1687
624.793 1675
624.868 1690
624.943 1684
625.018 1675
625.093 1678
625.168 1691
625.243 1677
625.319 1684
625.394 1686
625.469 1667
625.544 1685
625.619 1687
625.694 1670
625.769 1674
625.844 1677
625.919 1669
625.994 1657
626.069 1683
626.144 1679
626.219 1683
626.294 1673
626.369 1689
626.445 1675
626.52 1682
626.595 1688
626.67 1668
626.745 1687
626.82 1663
626.895 1680
626.97 1665
627.045 1680
627.12 1669
627.195 1683
627.27 1669
627.345 1720
627.42 1805
627.495 1888
627.57 1889
627.645 1787
627.72 1761
627.795 1721
627.87 1705
627.945 1678
628.02 1712
628.095 1693
628.17 1677
628.245 1686
628.32 1691
628.395 1686
628.47 1680
628.545 1668
628.62 1675
628.695 1679
628.77 1673
628.845 1673
628.92 1669
628.995 1666
629.07 1671
629.145 1674
629.22 1664
629.295 1663
629.37 1676
629.445 1668
629.52 1685
629.595 1685
629.67 1681
629.745 1685
629.82 1668
629.895 1701
629.97 1670
630.045 1665
630.12 1675
630.195 1674
630.27 1663
630.345 1674
630.42 1689
630.495 1694
630.57 1680
630.645 1667
630.72 1672
630.795 1667
630.87 1676
630.945 1659
631.019 1677
631.094 1665
631.169 1699
631.244 1710
631.319 1743
631.394 1712
631.469 1707
631.544 1704
631.619 1668
631.694 1686
631.769 1676
631.844 1672
631.919 1679
631.994 1681
632.069 1693
632.143 1687
632.218 1691
632.293 1678
632.368 1688
632.443 1669
632.518 1690
632.593 1682
632.668 1698
632.743 1668
632.818 1672
632.893 1656
632.968 1685
633.042 1668
633.117 1675
633.192 1686
633.267 1670
633.342 1687
633.417 1666
633.492 1680
633.567 1694
633.642 1679
633.716 1665
633.791 1666
633.866 1685
633.941 1684
634.016 1672
634.091 1675
634.166 1747
634.241 1810
634.315 1820
634.39 1768
634.465 1749
634.54 1732
634.615 1705
634.69 1695
634.765 1690
634.84 1691
634.914 1694
634.989 1674
635.064 1690
635.139 1670
635.214 1686
635.289 1673
635.364 1672
635.438 1657
635.513 1695
635.588 1666
635.663 1680
635.738 1672
635.813 1692
635.887 1674
635.962 1687
636.037 1685
636.112 1694
636.187 1677
636.261 1677
636.336 1681
636.411 1680
636.486 1680
636.561 1678
636.636 1663
636.71 1682
636.785 1693
636.86 1684
636.935 1653
637.01 1688
637.084 1669
637.159 1678
637.234 1664
637.309 1668
637.384 1667
637.458 1667
637.533 1673
637.608 1684
637.683 1667
637.758 1678
637.832 1676
637.907 1679
637.982 1664
638.057 1666
638.132 1666
638.206 1672
638.281 1686
638.356 1671
638.431 1672
638.505 1672
638.58 1669
638.655 1680
638.73 1670
638.805 1698
638.879 1683
638.954 1714
639.029 1819
639.104 1974
639.178 1895
639.253 1823
639.328 1788
639.403 1751
639.477 1718
639.552 1692
639.627 1697
639.702 1676
639.776 1673
639.851 1681
639.926 1685
640.001 1672
640.075 1677
640.15 1681
640.225 1673
640.299 1679
640.374 1661
640.449 1690
640.524 1671
640.598 1672
640.673 1674
640.748 1665
640.823 1703
640.897 1816
640.972 2054
641.047 2150
641.121 2047
641.196 1915
641.271 1827
641.345 1737
641.42 1738
641.495 1719
641.57 1704
641.644 1704
641.719 1694
641.794 1697
641.868 1686
641.943 1688
642.018 1670
642.092 1689
642.167 1660
642.242 1658
642.316 1678
642.391 1659
642.466 1673
642.54 1659
642.615 1674
642.69 1672
642.764 1658
642.839 1678
642.914 1664
642.988 1667
643.063 1670
643.138 1687
643.212 1668
643.287 1669
643.362 1665
643.436 1685
643.511 1655
643.586 1680
643.66 1671
643.735 1658
643.81 1688
643.884 1673
643.959 1676
644.034 1673
644.108 1680
644.183 1691
644.257 1677
644.332 1670
644.407 1680
644.481 1658
644.556 1644
644.631 1704
644.705 1674
644.78 1679
644.854 1668
644.929 1708
645.004 1665
645.078 1688
645.153 1669
645.227 1682
645.302 1681
645.377 1648
645.451 1667
645.526 1685
645.6 1668
645.675 1689
645.75 1682
645.824 1678
645.899 1687
645.973 1665
646.048 1674
646.123 1671
646.197 1656
646.272 1692
646.346 1676
646.421 1683
646.496 1655
646.57 1678
646.645 1668
646.719 1662
646.794 1695
646.868 1665
646.943 1661
647.018 1661
647.092 1676
647.167 1677
647.241 1667
647.316 1657
647.39 1659
647.465 1651
647.539 1683
647.614 1666
647.689 1672
647.763 1671
647.838 1675
647.912 1667
647.987 1662
648.061 1658
648.136 1645
648.21 1666
648.285 1659
648.359 1665
648.434 1678
648.508 1682
648.583 1659
648.657 1686
648.732 1663
648.807 1682
648.881 1659
648.956 1675
649.03 1665
649.105 1679
649.179 1654
649.254 1665
649.328 1660
649.403 1660
649.477 1645
649.552 1662
649.626 1671
649.701 1673
649.775 1665
649.85 1674
649.924 1670
649.999 1672
650.073 1662
650.148 1663
650.222 1659
650.297 1666
650.371 1674
650.445 1671
650.52 1662
650.594 1679
650.669 1665
650.743 1658
650.818 1650
650.892 1677
650.967 1674
651.041 1675
651.116 1688
651.19 1693
651.265 1742
651.339 1846
651.414 1912
651.488 1894
651.562 1808
651.637 1765
651.711 1709
651.786 1718
651.86 1684
651.935 1683
652.009 1687
652.083 1689
652.158 1682
652.232 1683
652.307 1665
652.381 1649
652.456 1679
652.53 1656
652.604 1667
652.679 1656
652.753 1659
652.828 1682
652.902 1659
652.977 1668
653.051 1657
653.125 1659
653.2 1654
653.274 1665
653.349 1669
653.423 1674
653.497 1662
653.572 1662
653.646 1651
653.721 1667
653.795 1665
653.869 1699
653.944 1721
654.018 1763
654.093 1754
654.167 1727
654.241 1707
654.316 1689
654.39 1691
654.464 1678
654.539 1702
654.613 1663
654.688 1672
654.762 1658
654.836 1674
654.911 1666
654.985 1675
655.059 1661
655.134 1656
655.208 1688
655.282 1683
655.357 1681
655.431 1668
655.505 1673
655.58 1664
655.654 1656
655.729 1660
655.803 1678
655.877 1666
655.952 1682
656.026 1671
656.1 1684
656.175 1674
656.249 1662
656.323 1638
656.398 1658
656.472 1652
656.546 1654
656.62 1664
656.695 1659
656.769 1646
656.843 1656
656.918 1640
656.992 1664
657.066 1651
657.141 1650
657.215 1651
657.289 1651
657.364 1671
657.438 1651
657.512 1645
657.586 1655
657.661 1643
657.735 1672
657.809 1645
657.884 1647
657.958 1630
658.032 1665
658.107 1674
658.181 1646
658.255 1672
658.329 1656
658.404 1663
658.478 1670
658.552 1644
658.626 1666
658.701 1642
658.775 1661
658.849 1662
658.923 1660
658.998 1666
659.072 1663
659.146 1676
659.221 1657
659.295 1650
659.369 1676
659.443 1672
659.517 1657
659.592 1648
659.666 1670
659.74 1664
659.814 1670
659.889 1654
