%  FabNS Header Version:	0.1
%  Export Date:	Tue Oct 29 2024
%  Shape:	1600 
%  Shape Units:	Wavelength [nm] 
%  Data Unit:	units
539.067 1617
539.143 1601
539.22 1610
539.297 1618
539.373 1610
539.45 1601
539.527 1619
539.603 1610
539.68 1616
539.757 1608
539.833 1596
539.91 1614
539.987 1611
540.063 1590
540.14 1594
540.217 1596
540.293 1605
540.37 1613
540.446 1622
540.523 1608
540.6 1606
540.676 1618
540.753 1610
540.83 1603
540.906 1601
540.983 1624
541.06 1619
541.136 1614
541.213 1624
541.289 1614
541.366 1622
541.443 1638
541.519 1627
541.596 1621
541.673 1625
541.749 1620
541.826 1621
541.902 1611
541.979 1623
542.056 1614
542.132 1630
542.209 1637
542.285 1639
542.362 1625
542.439 1645
542.515 1646
542.592 1626
542.668 1621
542.745 1645
542.822 1658
542.898 1627
542.975 1651
543.052 1647
543.128 1623
543.205 1640
543.281 1635
543.358 1613
543.435 1633
543.511 1628
543.588 1621
543.664 1625
543.741 1629
543.818 1627
543.894 1625
543.971 1627
544.047 1604
544.124 1620
544.2 1637
544.277 1623
544.354 1626
544.43 1627
544.507 1636
544.583 1635
544.66 1641
544.736 1635
544.813 1644
544.89 1638
544.966 1641
545.043 1658
545.119 1619
545.196 1621
545.272 1642
545.349 1652
545.426 1637
545.502 1622
545.579 1644
545.655 1625
545.732 1618
545.808 1639
545.885 1638
545.961 1624
546.038 1634
546.115 1636
546.191 1625
546.268 1639
546.344 1625
546.421 1638
546.497 1640
546.574 1634
546.65 1646
546.727 1652
546.804 1664
546.88 1668
546.957 1667
547.033 1676
547.11 1648
547.186 1667
547.263 1647
547.339 1639
547.416 1654
547.492 1612
547.569 1626
547.646 1628
547.722 1637
547.799 1634
547.875 1627
547.952 1628
548.028 1630
548.105 1613
548.181 1628
548.258 1626
548.334 1619
548.411 1643
548.487 1635
548.564 1637
548.64 1636
548.717 1623
548.793 1612
548.87 1627
548.946 1618
549.023 1623
549.099 1626
549.176 1626
549.252 1610
549.329 1614
549.405 1622
549.482 1621
549.558 1611
549.635 1613
549.711 1625
549.788 1623
549.864 1625
549.941 1633
550.017 1622
550.094 1631
550.17 1624
550.247 1624
550.323 1629
550.4 1640
550.476 1638
550.553 1618
550.629 1629
550.706 1624
550.782 1615
550.859 1613
550.935 1611
551.012 1614
551.088 1610
551.165 1607
551.241 1626
551.318 1627
551.394 1631
551.471 1631
551.547 1616
551.624 1609
551.7 1620
551.777 1632
551.853 1605
551.93 1616
552.006 1622
552.082 1618
552.159 1628
552.235 1627
552.312 1622
552.388 1621
552.465 1618
552.541 1629
552.618 1617
552.694 1608
552.771 1608
552.847 1613
552.923 1609
553 1628
553.076 1623
553.153 1625
553.229 1617
553.306 1627
553.382 1637
553.459 1590
553.535 1620
553.611 1625
553.688 1630
553.764 1615
553.841 1634
553.917 1612
553.994 1611
554.07 1627
554.147 1623
554.223 1652
554.299 1623
554.376 1608
554.452 1612
554.529 1613
554.605 1615
554.682 1611
554.758 1621
554.834 1632
554.911 1620
554.987 1614
555.064 1612
555.14 1608
555.216 1617
555.293 1624
555.369 1633
555.446 1611
555.522 1603
555.599 1615
555.675 1608
555.751 1630
555.828 1621
555.904 1608
555.981 1623
556.057 1616
556.133 1618
556.21 1617
556.286 1624
556.363 1609
556.439 1631
556.515 1618
556.592 1618
556.668 1617
556.745 1618
556.821 1622
556.897 1622
556.974 1611
557.05 1603
557.127 1607
557.203 1627
557.279 1604
557.356 1626
557.432 1616
557.508 1621
557.585 1618
557.661 1629
557.738 1618
557.814 1617
557.89 1622
557.967 1599
558.043 1606
558.119 1611
558.196 1625
558.272 1600
558.349 1615
558.425 1616
558.501 1613
558.578 1640
558.654 1605
558.73 1614
558.807 1616
558.883 1624
558.959 1606
559.036 1623
559.112 1597
559.188 1629
559.265 1606
559.341 1601
559.418 1616
559.494 1620
559.57 1621
559.647 1610
559.723 1616
559.799 1604
559.876 1633
559.952 1609
560.028 1611
560.105 1611
560.181 1629
560.257 1624
560.334 1626
560.41 1613
560.486 1620
560.563 1614
560.639 1607
560.715 1603
560.792 1609
560.868 1620
560.944 1614
561.021 1607
561.097 1610
561.173 1596
561.25 1631
561.326 1609
561.402 1613
561.479 1607
561.555 1617
561.631 1616
561.708 1620
561.784 1619
561.86 1604
561.936 1627
562.013 1622
562.089 1608
562.165 1629
562.242 1629
562.318 1608
562.394 1626
562.471 1617
562.547 1619
562.623 1615
562.699 1618
562.776 1600
562.852 1612
562.928 1627
563.005 1622
563.081 1634
563.157 1628
563.233 1621
563.31 1611
563.386 1625
563.462 1616
563.539 1631
563.615 1601
563.691 1643
563.768 1607
563.844 1629
563.92 1633
563.996 1637
564.073 1620
564.149 1598
564.225 1610
564.301 1629
564.378 1635
564.454 1618
564.53 1628
564.607 1627
564.683 1625
564.759 1635
564.835 1611
564.912 1609
564.988 1613
565.064 1610
565.14 1615
565.217 1617
565.293 1613
565.369 1625
565.445 1623
565.522 1635
565.598 1605
565.674 1617
565.75 1628
565.827 1639
565.903 1638
565.979 1619
566.055 1627
566.132 1635
566.208 1608
566.284 1614
566.36 1643
566.437 1621
566.513 1612
566.589 1622
566.665 1607
566.741 1614
566.818 1626
566.894 1602
566.97 1615
567.046 1625
567.123 1623
567.199 1612
567.275 1638
567.351 1624
567.427 1600
567.504 1624
567.58 1611
567.656 1630
567.732 1624
567.809 1645
567.885 1618
567.961 1617
568.037 1633
568.113 1640
568.19 1621
568.266 1642
568.342 1633
568.418 1624
568.494 1618
568.571 1616
568.647 1634
568.723 1631
568.799 1616
568.875 1628
568.952 1603
569.028 1618
569.104 1620
569.18 1632
569.256 1623
569.333 1626
569.409 1625
569.485 1616
569.561 1606
569.637 1619
569.713 1612
569.79 1630
569.866 1638
569.942 1622
570.018 1613
570.094 1622
570.17 1614
570.247 1609
570.323 1626
570.399 1622
570.475 1606
570.551 1645
570.628 1628
570.704 1609
570.78 1600
570.856 1624
570.932 1611
571.008 1615
571.084 1606
571.161 1627
571.237 1620
571.313 1631
571.389 1616
571.465 1622
571.541 1616
571.617 1605
571.694 1624
571.77 1616
571.846 1631
571.922 1613
571.998 1620
572.074 1625
572.151 1618
572.227 1634
572.303 1627
572.379 1636
572.455 1627
572.531 1620
572.607 1611
572.683 1625
572.76 1615
572.836 1614
572.912 1613
572.988 1634
573.064 1626
573.14 1638
573.216 1638
573.292 1623
573.369 1628
573.445 1652
573.521 1624
573.597 1630
573.673 1649
573.749 1621
573.825 1622
573.901 1622
573.977 1621
574.054 1626
574.13 1610
574.206 1622
574.282 1616
574.358 1642
574.434 1628
574.51 1624
574.586 1619
574.662 1633
574.738 1611
574.815 1629
574.891 1624
574.967 1634
575.043 1641
575.119 1623
575.195 1636
575.271 1620
575.347 1613
575.423 1615
575.499 1625
575.575 1617
575.651 1648
575.727 1618
575.804 1622
575.88 1631
575.956 1633
576.032 1613
576.108 1631
576.184 1638
576.26 1618
576.336 1616
576.412 1619
576.488 1616
576.564 1627
576.64 1638
576.716 1616
576.792 1628
576.868 1637
576.945 1632
577.021 1632
577.097 1621
577.173 1623
577.249 1654
577.325 1626
577.401 1606
577.477 1617
577.553 1632
577.629 1649
577.705 1625
577.781 1621
577.857 1634
577.933 1642
578.009 1628
578.085 1631
578.161 1639
578.237 1633
578.313 1613
578.389 1629
578.465 1606
578.541 1635
578.617 1630
578.693 1619
578.769 1622
578.845 1624
578.921 1624
578.997 1622
579.074 1638
579.149 1622
579.226 1611
579.302 1616
579.378 1623
579.454 1633
579.53 1611
579.606 1617
579.682 1618
579.758 1621
579.834 1633
579.91 1631
579.986 1633
580.062 1634
580.138 1633
580.214 1648
580.29 1606
580.366 1627
580.442 1618
580.518 1627
580.594 1633
580.67 1622
580.745 1650
580.821 1634
580.897 1641
580.973 1649
581.049 1629
581.125 1631
581.201 1637
581.277 1631
581.353 1627
581.429 1634
581.505 1636
581.581 1637
581.657 1639
581.733 1632
581.809 1637
581.885 1624
581.961 1624
582.037 1638
582.113 1619
582.189 1646
582.265 1619
582.341 1626
582.417 1613
582.493 1628
582.569 1622
582.645 1603
582.721 1615
582.797 1637
582.873 1622
582.948 1625
583.024 1620
583.1 1629
583.176 1640
583.252 1626
583.328 1651
583.404 1631
583.48 1633
583.556 1639
583.632 1625
583.708 1636
583.784 1633
583.86 1629
583.936 1628
584.012 1642
584.088 1643
584.163 1641
584.239 1628
584.315 1639
584.391 1647
584.467 1630
584.543 1637
584.619 1645
584.695 1624
584.771 1627
584.847 1635
584.923 1626
584.999 1628
585.074 1645
585.15 1654
585.226 1632
585.302 1619
585.378 1643
585.454 1644
585.53 1631
585.606 1637
585.682 1631
585.758 1631
585.833 1639
585.909 1653
585.985 1626
586.061 1641
586.137 1616
586.213 1641
586.289 1643
586.365 1632
586.44 1643
586.516 1642
586.592 1638
586.668 1641
586.744 1643
586.82 1630
586.896 1631
586.972 1637
587.047 1623
587.123 1637
587.199 1629
587.275 1629
587.351 1638
587.427 1635
587.503 1622
587.579 1636
587.654 1619
587.73 1625
587.806 1645
587.882 1649
587.958 1647
588.034 1647
588.11 1645
588.185 1653
588.261 1647
588.337 1656
588.413 1654
588.489 1651
588.565 1643
588.64 1647
588.716 1635
588.792 1628
588.868 1637
588.944 1627
589.02 1625
589.095 1644
589.171 1638
589.247 1608
589.323 1621
589.399 1624
589.475 1641
589.55 1628
589.626 1628
589.702 1646
589.778 1622
589.854 1633
589.93 1621
590.005 1612
590.081 1618
590.157 1594
590.233 1619
590.309 1611
590.384 1618
590.46 1619
590.536 1622
590.612 1611
590.688 1607
590.763 1627
590.839 1631
590.915 1604
590.991 1641
591.067 1629
591.142 1642
591.218 1626
591.294 1618
591.37 1640
591.445 1634
591.521 1607
591.597 1625
591.673 1635
591.749 1646
591.824 1618
591.9 1633
591.976 1636
592.052 1637
592.128 1654
592.203 1636
592.279 1635
592.355 1638
592.431 1636
592.506 1625
592.582 1627
592.658 1649
592.734 1647
592.809 1625
592.885 1627
592.961 1624
593.037 1636
593.112 1626
593.188 1636
593.264 1618
593.34 1635
593.415 1615
593.491 1632
593.567 1620
593.643 1644
593.718 1641
593.794 1629
593.87 1631
593.946 1641
594.021 1629
594.097 1643
594.173 1629
594.249 1646
594.324 1638
594.4 1635
594.476 1627
594.551 1643
594.627 1636
594.703 1636
594.779 1626
594.854 1643
594.93 1641
595.006 1649
595.082 1634
595.157 1638
595.233 1633
595.309 1647
595.384 1634
595.46 1637
595.536 1636
595.612 1628
595.687 1628
595.763 1632
595.839 1614
595.914 1643
595.99 1646
596.066 1641
596.141 1639
596.217 1627
596.293 1638
596.369 1644
596.444 1638
596.52 1656
596.596 1647
596.671 1632
596.747 1649
596.823 1657
596.898 1642
596.974 1641
597.05 1645
597.125 1636
597.201 1651
597.277 1656
597.352 1654
597.428 1630
597.504 1637
597.579 1663
597.655 1619
597.731 1629
597.806 1650
597.882 1656
597.958 1636
598.033 1638
598.109 1654
598.185 1651
598.26 1642
598.336 1633
598.411 1650
598.487 1638
598.563 1651
598.638 1655
598.714 1639
598.79 1637
598.865 1649
598.941 1628
599.017 1644
599.092 1644
599.168 1631
599.244 1653
599.319 1638
599.395 1657
599.471 1641
599.546 1659
599.622 1612
599.697 1635
599.773 1666
599.849 1643
599.924 1655
600 1649
600.076 1636
600.151 1639
600.227 1651
600.302 1667
600.378 1657
600.454 1647
600.529 1624
600.605 1640
600.68 1649
600.756 1666
600.832 1652
600.907 1632
600.983 1654
601.058 1647
601.134 1655
601.21 1664
601.285 1666
601.361 1667
601.436 1640
601.512 1658
601.588 1650
601.663 1634
601.739 1643
601.814 1648
601.89 1644
601.965 1636
602.041 1656
602.117 1634
602.192 1649
602.268 1651
602.343 1652
602.419 1666
602.494 1656
602.57 1658
602.646 1654
602.721 1638
602.797 1646
602.872 1632
602.948 1669
603.023 1659
603.099 1646
603.174 1632
603.25 1654
603.326 1654
603.401 1641
603.477 1642
603.552 1645
603.628 1652
603.703 1640
603.779 1653
603.854 1647
603.93 1666
604.005 1661
604.081 1654
604.156 1662
604.232 1641
604.308 1653
604.383 1642
604.459 1629
604.534 1649
604.61 1684
604.685 1658
604.761 1647
604.836 1671
604.912 1655
604.987 1663
605.063 1654
605.138 1659
605.214 1666
605.289 1662
605.365 1675
605.44 1649
605.516 1646
605.591 1637
605.667 1676
605.742 1657
605.818 1657
605.893 1666
605.969 1648
606.044 1654
606.12 1652
606.195 1660
606.271 1663
606.346 1657
606.422 1664
606.497 1665
606.573 1674
606.648 1644
606.724 1670
606.799 1668
606.875 1664
606.95 1668
607.026 1672
607.101 1656
607.177 1664
607.252 1648
607.328 1654
607.403 1675
607.479 1665
607.554 1679
607.63 1647
607.705 1665
607.78 1658
607.856 1662
607.931 1645
608.007 1686
608.082 1655
608.158 1670
608.233 1664
608.309 1670
608.384 1660
608.459 1666
608.535 1675
608.61 1674
608.686 1678
608.761 1684
608.837 1686
608.912 1652
608.988 1677
609.063 1664
609.138 1667
609.214 1675
609.289 1655
609.365 1657
609.44 1651
609.516 1670
609.591 1653
609.666 1656
609.742 1651
609.817 1661
609.893 1664
609.968 1678
610.043 1661
610.119 1683
610.194 1655
610.27 1670
610.345 1671
610.42 1662
610.496 1646
610.571 1681
610.647 1671
610.722 1683
610.797 1662
610.873 1665
610.948 1681
611.024 1660
611.099 1675
611.174 1678
611.25 1679
611.325 1674
611.401 1673
611.476 1684
611.551 1679
611.627 1672
611.702 1681
611.778 1690
611.853 1685
611.928 1718
612.004 1715
612.079 1716
612.154 1714
612.23 1726
612.305 1737
612.38 1724
612.456 1743
612.531 1736
612.607 1741
612.682 1745
612.757 1732
612.833 1722
612.908 1722
612.983 1712
613.059 1728
613.134 1710
613.209 1706
613.285 1705
613.36 1699
613.435 1694
613.511 1690
613.586 1674
613.661 1675
613.737 1686
613.812 1655
613.887 1676
613.963 1689
614.038 1670
614.113 1670
614.189 1685
614.264 1680
614.339 1670
614.415 1680
614.49 1663
614.565 1695
614.641 1679
614.716 1671
614.791 1660
614.867 1701
614.942 1683
615.017 1657
615.092 1664
615.168 1685
615.243 1661
615.318 1676
615.394 1676
615.469 1677
615.544 1677
615.62 1673
615.695 1694
615.77 1686
615.845 1674
615.921 1683
615.996 1678
616.071 1682
616.146 1694
616.222 1681
616.297 1675
616.372 1676
616.448 1681
616.523 1663
616.598 1663
616.673 1671
616.749 1667
616.824 1669
616.899 1664
616.974 1669
617.05 1675
617.125 1658
617.2 1671
617.276 1650
617.351 1669
617.426 1678
617.501 1654
617.577 1662
617.652 1666
617.727 1675
617.802 1660
617.878 1655
617.953 1664
618.028 1660
618.103 1664
618.179 1676
618.254 1679
618.329 1665
618.404 1680
618.479 1683
618.555 1659
618.63 1667
618.705 1674
618.78 1658
618.856 1679
618.931 1691
619.006 1665
619.081 1685
619.156 1673
619.232 1658
619.307 1658
619.382 1660
619.457 1663
619.533 1671
619.608 1660
619.683 1672
619.758 1669
619.833 1688
619.909 1672
619.984 1674
620.059 1671
620.134 1696
620.209 1681
620.284 1676
620.36 1672
620.435 1656
620.51 1662
620.585 1667
620.66 1665
620.736 1675
620.811 1690
620.886 1665
620.961 1683
621.036 1666
621.112 1682
621.187 1669
621.262 1683
621.337 1682
621.412 1675
621.487 1680
621.563 1677
621.638 1683
621.713 1694
621.788 1676
621.863 1662
621.938 1682
622.013 1694
622.089 1670
622.164 1672
622.239 1676
622.314 1666
622.389 1675
622.464 1685
622.539 1667
622.615 1686
622.69 1662
622.765 1678
622.84 1675
622.915 1656
622.99 1661
623.065 1685
623.141 1674
623.216 1696
623.291 1667
623.366 1677
623.441 1674
623.516 1666
623.591 1665
623.666 1664
623.742 1657
623.817 1671
623.892 1685
623.967 1684
624.042 1675
624.117 1669
624.192 1697
624.267 1685
624.342 1677
624.417 1665
624.493 1668
624.568 1699
624.643 1687
624.718 1670
624.793 1662
624.868 1665
624.943 1684
625.018 1678
625.093 1667
625.168 1694
625.243 1670
625.319 1675
625.394 1677
625.469 1689
625.544 1665
625.619 1677
625.694 1675
625.769 1659
625.844 1655
625.919 1678
625.994 1664
626.069 1675
626.144 1671
626.219 1673
626.294 1648
626.369 1680
626.445 1675
626.52 1694
626.595 1680
626.67 1659
626.745 1665
626.82 1667
626.895 1684
626.97 1690
627.045 1664
627.12 1654
627.195 1671
627.27 1679
627.345 1670
627.42 1660
627.495 1682
627.57 1694
627.645 1677
627.72 1673
627.795 1664
627.87 1693
627.945 1675
628.02 1679
628.095 1682
628.17 1670
628.245 1669
628.32 1670
628.395 1665
628.47 1674
628.545 1679
628.62 1675
628.695 1664
628.77 1681
628.845 1676
628.92 1665
628.995 1668
629.07 1660
629.145 1668
629.22 1675
629.295 1672
629.37 1665
629.445 1645
629.52 1669
629.595 1673
629.67 1682
629.745 1669
629.82 1671
629.895 1662
629.97 1668
630.045 1680
630.12 1671
630.195 1683
630.27 1673
630.345 1667
630.42 1666
630.495 1679
630.57 1678
630.645 1670
630.72 1665
630.795 1671
630.87 1682
630.945 1663
631.019 1681
631.094 1660
631.169 1676
631.244 1689
631.319 1667
631.394 1657
631.469 1675
631.544 1684
631.619 1686
631.694 1682
631.769 1670
631.844 1674
631.919 1677
631.994 1690
632.069 1672
632.143 1663
632.218 1664
632.293 1667
632.368 1686
632.443 1675
632.518 1686
632.593 1660
632.668 1687
632.743 1680
632.818 1684
632.893 1678
632.968 1664
633.042 1682
633.117 1680
633.192 1689
633.267 1662
633.342 1669
633.417 1680
633.492 1657
633.567 1677
633.642 1673
633.716 1672
633.791 1672
633.866 1671
633.941 1663
634.016 1674
634.091 1681
634.166 1669
634.241 1679
634.315 1674
634.39 1662
634.465 1644
634.54 1667
634.615 1682
634.69 1676
634.765 1662
634.84 1681
634.914 1684
634.989 1665
635.064 1664
635.139 1667
635.214 1662
635.289 1655
635.364 1676
635.438 1654
635.513 1690
635.588 1677
635.663 1684
635.738 1660
635.813 1671
635.887 1669
635.962 1672
636.037 1673
636.112 1676
636.187 1654
636.261 1685
636.336 1677
636.411 1668
636.486 1674
636.561 1672
636.636 1671
636.71 1678
636.785 1654
636.86 1673
636.935 1672
637.01 1656
637.084 1663
637.159 1676
637.234 1687
637.309 1674
637.384 1658
637.458 1672
637.533 1670
637.608 1670
637.683 1642
637.758 1699
637.832 1671
637.907 1684
637.982 1656
638.057 1646
638.132 1661
638.206 1666
638.281 1677
638.356 1659
638.431 1649
638.505 1695
638.58 1672
638.655 1665
638.73 1661
638.805 1660
638.879 1673
638.954 1694
639.029 1685
639.104 1669
639.178 1680
639.253 1678
639.328 1663
639.403 1676
639.477 1700
639.552 1675
639.627 1674
639.702 1671
639.776 1675
639.851 1679
639.926 1666
640.001 1674
640.075 1656
640.15 1665
640.225 1658
640.299 1648
640.374 1670
640.449 1667
640.524 1682
640.598 1674
640.673 1686
640.748 1653
640.823 1662
640.897 1677
640.972 1675
641.047 1673
641.121 1662
641.196 1669
641.271 1681
641.345 1689
641.42 1672
641.495 1681
641.57 1688
641.644 1675
641.719 1678
641.794 1674
641.868 1667
641.943 1684
642.018 1659
642.092 1669
642.167 1670
642.242 1683
642.316 1660
642.391 1664
642.466 1658
642.54 1680
642.615 1661
642.69 1683
642.764 1690
642.839 1682
642.914 1658
642.988 1658
643.063 1674
643.138 1667
643.212 1655
643.287 1676
643.362 1680
643.436 1662
643.511 1669
643.586 1684
643.66 1660
643.735 1657
643.81 1657
643.884 1668
643.959 1673
644.034 1658
644.108 1684
644.183 1645
644.257 1664
644.332 1672
644.407 1675
644.481 1663
644.556 1657
644.631 1642
644.705 1658
644.78 1665
644.854 1662
644.929 1670
645.004 1659
645.078 1673
645.153 1659
645.227 1656
645.302 1660
645.377 1690
645.451 1670
645.526 1671
645.6 1667
645.675 1666
645.75 1669
645.824 1671
645.899 1662
645.973 1663
646.048 1661
646.123 1657
646.197 1654
646.272 1675
646.346 1639
646.421 1661
646.496 1648
646.57 1665
646.645 1663
646.719 1677
646.794 1659
646.868 1662
646.943 1660
647.018 1668
647.092 1653
647.167 1651
647.241 1661
647.316 1675
647.39 1656
647.465 1671
647.539 1666
647.614 1642
647.689 1656
647.763 1652
647.838 1646
647.912 1649
647.987 1659
648.061 1671
648.136 1665
648.21 1676
648.285 1679
648.359 1661
648.434 1668
648.508 1649
648.583 1673
648.657 1666
648.732 1671
648.807 1654
648.881 1660
648.956 1678
649.03 1670
649.105 1648
649.179 1663
649.254 1662
649.328 1665
649.403 1653
649.477 1652
649.552 1648
649.626 1667
649.701 1666
649.775 1653
649.85 1676
649.924 1686
649.999 1654
650.073 1655
650.148 1650
650.222 1662
650.297 1676
650.371 1662
650.445 1654
650.52 1644
650.594 1653
650.669 1670
650.743 1661
650.818 1661
650.892 1664
650.967 1642
651.041 1659
651.116 1681
651.19 1654
651.265 1650
651.339 1672
651.414 1666
651.488 1667
651.562 1672
651.637 1675
651.711 1666
651.786 1685
651.86 1658
651.935 1666
652.009 1659
652.083 1681
652.158 1672
652.232 1651
652.307 1658
652.381 1659
652.456 1640
652.53 1647
652.604 1664
652.679 1664
652.753 1663
652.828 1651
652.902 1654
652.977 1649
653.051 1666
653.125 1653
653.2 1678
653.274 1653
653.349 1676
653.423 1666
653.497 1674
653.572 1665
653.646 1683
653.721 1670
653.795 1684
653.869 1677
653.944 1684
654.018 1675
654.093 1677
654.167 1680
654.241 1667
654.316 1668
654.39 1655
654.464 1660
654.539 1670
654.613 1682
654.688 1666
654.762 1677
654.836 1684
654.911 1680
654.985 1689
655.059 1678
655.134 1669
655.208 1674
655.282 1660
655.357 1660
655.431 1648
655.505 1656
655.58 1668
655.654 1661
655.729 1672
655.803 1678
655.877 1662
655.952 1663
656.026 1652
656.1 1648
656.175 1656
656.249 1662
656.323 1664
656.398 1680
656.472 1656
656.546 1648
656.62 1660
656.695 1662
656.769 1666
656.843 1677
656.918 1651
656.992 1652
657.066 1660
657.141 1632
657.215 1655
657.289 1637
657.364 1649
657.438 1619
657.512 1654
657.586 1636
657.661 1635
657.735 1664
657.809 1659
657.884 1656
657.958 1663
658.032 1655
658.107 1657
658.181 1669
658.255 1639
658.329 1675
658.404 1665
658.478 1665
658.552 1666
658.626 1659
658.701 1649
658.775 1651
658.849 1661
658.923 1664
658.998 1668
659.072 1661
659.146 1672
659.221 1692
659.295 1658
659.369 1670
659.443 1644
659.517 1679
659.592 1660
659.666 1669
659.74 1671
659.814 1649
659.889 1681
